File: data/data_modification/Test_0611_cleansed.csv
Molar ratio (Zn:Cu),Promoter 1,Promoter 1 ratio (Promoter 1:Cu),Promoter 2,Promoter 2 ratio (Promoter 2:Cu),Catalyst surface area (m2/g) (LN scale),Type of sysnthesis procedure,Calcination temperature (°C),Calcination time (h),Temperature (°C),Pressure (bar),H2/CO2 ratio (-),GHSV (mL/g.h) (LN scale),CO selectivity (%),Methanol selectivity (%),STY_CH3OH (g/kg·h) (LN scale),CO2 conversion efficiency (%),Unnamed: 17,Unnamed: 18,Unnamed: 19,DOI,Name,Year
2.0,Null,,Null,,3.10459,Co-precipitation,350.0,4.0,200.0,30.0,3.0,10.0858,39.9504,60.0496,4.68006,2.12687,,,,10.1016/j.apcatb.2022.122233,Boosting CO2 hydrogenation to methanol by adding trace amount of Au into Cu/ZnO catalysts,2023
2.0,Null,,Null,,3.10459,Co-precipitation,350.0,4.0,225.0,30.0,3.0,10.0858,46.8983,53.1017,5.07731,3.50746,,,,10.1016/j.apcatb.2022.122233,,2023
2.0,Null,,Null,,3.10459,Co-precipitation,350.0,4.0,250.0,30.0,3.0,10.0858,65.2605,34.7395,5.18869,6.00746,,,,10.1016/j.apcatb.2022.122233,,2023
2.0,Null,,Null,,3.10459,Co-precipitation,350.0,4.0,275.0,30.0,3.0,10.0858,78.1638,21.8362,5.28475,10.0224,,,,10.1016/j.apcatb.2022.122233,,2023
2.0,Au,0.001,Null,,3.46261,Co-precipitation,350.0,4.0,200.0,30.0,3.0,10.0858,23.0769,76.9231,5.0408,2.31343,,,,10.1016/j.apcatb.2022.122233,,2023
2.0,Au,0.001,Null,,3.46261,Co-precipitation,350.0,4.0,225.0,30.0,3.0,10.0858,34.4913,65.5087,5.45294,4.1791,,,,10.1016/j.apcatb.2022.122233,,2023
2.0,Au,0.001,Null,,3.46261,Co-precipitation,350.0,4.0,250.0,30.0,3.0,10.0858,48.3871,51.6129,5.62393,6.23134,,,,10.1016/j.apcatb.2022.122233,,2023
2.0,Au,0.001,Null,,3.46261,Co-precipitation,350.0,4.0,275.0,30.0,3.0,10.0858,70.2233,29.7767,5.68155,11.6045,,,,10.1016/j.apcatb.2022.122233,,2023
2.0,Au,0.005,Null,,3.46574,Co-precipitation,350.0,4.0,200.0,30.0,3.0,10.0858,18.6104,81.3896,5.19782,2.54325,,,,10.1016/j.apcatb.2022.122233,,2023
2.0,Au,0.005,Null,,3.46574,Co-precipitation,350.0,4.0,225.0,30.0,3.0,10.0858,30.7692,69.2308,5.57532,4.37872,,,,10.1016/j.apcatb.2022.122233,,2023
2.0,Au,0.005,Null,,3.46574,Co-precipitation,350.0,4.0,250.0,30.0,3.0,10.0858,42.1836,57.8164,5.7518,6.30551,,,,10.1016/j.apcatb.2022.122233,,2023
2.0,Au,0.005,Null,,3.46574,Co-precipitation,350.0,4.0,275.0,30.0,3.0,10.0858,69.0722,30.9278,5.80762,9.77035,,,,10.1016/j.apcatb.2022.122233,,2023
2.0,Au,0.02,Null,,3.24259,Co-precipitation,350.0,4.0,200.0,30.0,3.0,10.0858,22.0844,77.9156,4.98621,2.16965,,,,10.1016/j.apcatb.2022.122233,,2023
2.0,Au,0.02,Null,,3.24259,Co-precipitation,350.0,4.0,225.0,30.0,3.0,10.0858,32.2581,67.7419,5.43519,3.91121,,,,10.1016/j.apcatb.2022.122233,,2023
2.0,Au,0.02,Null,,3.24259,Co-precipitation,350.0,4.0,250.0,30.0,3.0,10.0858,43.9206,56.0794,5.67028,5.97653,,,,10.1016/j.apcatb.2022.122233,,2023
2.0,Au,0.02,Null,,3.24259,Co-precipitation,350.0,4.0,275.0,30.0,3.0,10.0858,68.2382,31.7618,5.69268,10.0269,,,,10.1016/j.apcatb.2022.122233,,2023
2.0,Au,0.05,Null,,3.22287,Co-precipitation,350.0,4.0,200.0,30.0,3.0,10.0858,31.7618,68.2382,4.5925,1.65518,,,,10.1016/j.apcatb.2022.122233,,2023
2.0,Au,0.05,Null,,3.22287,Co-precipitation,350.0,4.0,225.0,30.0,3.0,10.0858,41.4392,58.5608,5.23787,3.72311,,,,10.1016/j.apcatb.2022.122233,,2023
2.0,Au,0.05,Null,,3.22287,Co-precipitation,350.0,4.0,250.0,30.0,3.0,10.0858,50.3722,49.6278,5.5275,5.83591,,,,10.1016/j.apcatb.2022.122233,,2023
2.0,Au,0.05,Null,,3.22287,Co-precipitation,350.0,4.0,275.0,30.0,3.0,10.0858,71.7122,28.2878,5.62393,9.41265,,,,10.1016/j.apcatb.2022.122233,,2023
0.4587,Zr,0.0413,Al,2.2568,4.23411,Co-precipitation,500.0,5.0,250.0,50.0,3.04,8.29405,38.5,61.5,5.39226,25.9,,,,10.1016/j.jcou.2016.01.005,Catalytic performance of spray-dried Cu/ZnO/Al2O3/ZrO2 catalysts for slurry methanol synthesis from CO2 hydrogenation,2016
0.4566,Zr,0.0411,Al,2.8128,4.31749,Co-precipitation,500.0,5.0,250.0,50.0,3.04,8.29405,39.4,60.6,5.35044,25.2,,,,10.1016/j.jcou.2016.01.005,,2016
0.4525,Zr,0.0407,Al,3.3304,4.35671,Co-precipitation,500.0,5.0,250.0,50.0,3.04,8.29405,41.3,58.7,5.29882,24.7,,,,10.1016/j.jcou.2016.01.005,,2016
0.4484,Zr,0.0404,Al,4.016,4.40672,Co-precipitation,500.0,5.0,250.0,50.0,3.04,8.29405,42.3,57.7,5.24069,23.7,,,,10.1016/j.jcou.2016.01.005,,2016
0.4525,Zr,0.0407,Al,4.8868,4.47734,Co-precipitation,500.0,5.0,250.0,50.0,3.04,8.29405,44.8,55.2,5.13167,22.2,,,,10.1016/j.jcou.2016.01.005,,2016
0.4587,Zr,0.0413,Al,2.2568,4.23411,Co-precipitation,500.0,5.0,220.0,30.0,3.04,8.29405,38.9,61.1,3.60005,8.5,,,,10.1016/j.jcou.2016.01.005,,2016
0.4566,Zr,0.0411,Al,2.8128,4.31749,Co-precipitation,500.0,5.0,220.0,30.0,3.04,8.29405,36.5,63.5,3.95891,11.8,,,,10.1016/j.jcou.2016.01.005,,2016
0.4525,Zr,0.0407,Al,3.3304,4.35671,Co-precipitation,500.0,5.0,220.0,30.0,3.04,8.29405,38.3,61.7,4.07073,13.6,,,,10.1016/j.jcou.2016.01.005,,2016
0.4484,Zr,0.0404,Al,4.016,4.40672,Co-precipitation,500.0,5.0,220.0,30.0,3.04,8.29405,41.8,58.2,3.93183,12.5,,,,10.1016/j.jcou.2016.01.005,,2016
0.4525,Zr,0.0407,Al,4.8868,4.47734,Co-precipitation,500.0,5.0,220.0,30.0,3.04,8.29405,46.2,53.8,3.49043,8.6,,,,10.1016/j.jcou.2016.01.005,,2016
0.7319,Zr,0.6616,Null,,5.09375,Co-precipitation,350.0,2.0,200.0,20.0,3.0,9.65503,30.043,65.3151,4.67187,2.90644,,,,10.1016/j.cej.2017.02.010,CO2 hydrogenation to methanol over CuO–ZnO–ZrO2–SiO2 catalysts: Effects of SiO2 contents,2017
0.7319,Zr,0.6616,Null,,5.09375,Co-precipitation,350.0,2.0,220.0,20.0,3.0,9.65503,52.185,47.7808,5.07568,5.97586,,,,10.1016/j.cej.2017.02.010,,2017
0.7319,Zr,0.6616,Null,,5.09375,Co-precipitation,350.0,2.0,240.0,20.0,3.0,9.65503,68.1634,32.0,5.27087,10.8581,,,,10.1016/j.cej.2017.02.010,,2017
0.7319,Zr,0.6616,Null,,5.09375,Co-precipitation,350.0,2.0,260.0,20.0,3.0,9.65503,86.7246,14.4658,4.77139,14.52731,,,,10.1016/j.cej.2017.02.010,,2017
0.7319,Zr,0.6616,Null,,5.09375,Co-precipitation,350.0,2.0,280.0,20.0,3.0,9.65503,91.5842,9.20548,4.59071,19.02298,,,,10.1016/j.cej.2017.02.010,,2017
1.0,Null,,Null,,2.27213,Mechanical grinding,350.0,3.0,250.0,30.0,2.88,7.67786,100.0,0.0,0.0,0.8,,,,10.1007/s11814-017-0278-8,CO2 hydrogenation to methanol over Cu/ZnO catalysts synthesized via a facile solid-phase grinding process using oxalic acid,2018
1.0,(COOH)2,0.25,Null,,2.69463,Mechanical grinding,350.0,3.0,250.0,30.0,2.88,7.67786,100.0,0.0,0.0,1.8,,,,10.1007/s11814-017-0278-8,,2018
1.0,(COOH)2,0.5,Null,,3.16548,Mechanical grinding,350.0,3.0,250.0,30.0,2.88,7.67786,92.6,7.4,1.69611,7.8,,,,10.1007/s11814-017-0278-8,,2018
1.0,(COOH)2,1.0,Null,,3.2581,Mechanical grinding,350.0,3.0,250.0,30.0,2.88,7.67786,19.4,80.6,5.09548,26.1,,,,10.1007/s11814-017-0278-8,,2018
1.0,(COOH)2,1.5,Null,,3.47507,Mechanical grinding,350.0,3.0,250.0,30.0,2.88,7.67786,16.3,83.7,5.15186,26.6,,,,10.1007/s11814-017-0278-8,,2018
1.0,(COOH)2,1.75,Null,,3.64284,Mechanical grinding,350.0,3.0,250.0,30.0,2.88,7.67786,16.4,83.6,5.24341,29.2,,,,10.1007/s11814-017-0278-8,,2018
1.0,(COOH)2,2.0,Null,,3.54674,Mechanical grinding,350.0,3.0,250.0,30.0,2.88,7.67786,18.9,81.1,5.17856,28.2,,,,10.1007/s11814-017-0278-8,,2018
1.0,(COOH)2,2.5,Null,,3.47197,Mechanical grinding,350.0,3.0,250.0,30.0,2.88,7.67786,18.3,81.7,5.2091,28.0,,,,10.1007/s11814-017-0278-8,,2018
1.0,(COOH)2,4.0,Null,,3.39451,Mechanical grinding,350.0,3.0,250.0,30.0,2.88,7.67786,19.3,80.7,5.18614,27.7,,,,10.1007/s11814-017-0278-8,,2018
0.7901,Null,,Null,,3.49256,Mechanical grinding,350.0,3.0,250.0,30.0,2.88,7.67786,23.14,76.86,5.13191,27.54,,,,10.1007/s11814-017-0278-8,,2018
0.8037,Null,,Null,,3.55934,Mechanical grinding,300.0,3.0,250.0,30.0,2.88,7.67786,21.35,77.22,5.14088,27.66,,,,10.1007/s11814-017-0278-8,,2018
0.8037,Null,,Null,,3.58712,Mechanical grinding,330.0,3.0,250.0,30.0,2.88,7.67786,22.54,81.32,5.19447,27.72,,,,10.1007/s11814-017-0278-8,,2018
0.8037,Null,,Null,,3.64257,Mechanical grinding,350.0,3.0,250.0,30.0,2.88,7.67786,24.42,83.56,5.27392,29.22,,,,10.1007/s11814-017-0278-8,,2018
0.8037,Null,,Null,,3.52076,Mechanical grinding,400.0,3.0,250.0,30.0,2.88,7.67786,23.15,80.5,5.22102,28.76,,,,10.1007/s11814-017-0278-8,,2018
0.8037,Null,,Null,,3.64257,Mechanical grinding,350.0,1.0,250.0,30.0,2.88,7.67786,20.26,79.74,5.18637,28.04,,,,10.1007/s11814-017-0278-9,,2018
0.8037,Null,,Null,,3.64257,Mechanical grinding,350.0,2.0,250.0,30.0,2.88,7.67786,18.32,81.68,5.22995,28.6,,,,10.1007/s11814-017-0278-10,,2018
0.8037,Null,,Null,,3.64257,Mechanical grinding,350.0,4.0,250.0,30.0,2.88,7.67786,20.54,79.46,5.20393,28.64,,,,10.1007/s11814-017-0278-11,,2018
1.0,HCOOH,6.0,Null,,3.15017,Mechanical grinding,280.0,3.0,250.0,30.0,2.88,7.67786,17.66,82.34,5.33151,31.42,,,,10.1002/slct.201900860,CO2 Hydrogenation to Methanol via In-situ Reduced Cu/ZnO Catalyst Prepared by Formic acid Assisted Grinding,2019
1.0,HCOOH,6.0,Null,,3.29213,Mechanical grinding,330.0,3.0,250.0,30.0,2.88,7.67786,15.7,84.3,5.3904,32.56,,,,10.1002/slct.201900860,,2019
1.0,HCOOH,6.0,Null,,3.27865,Mechanical grinding,350.0,3.0,250.0,30.0,2.88,7.67786,15.72,84.28,5.38342,32.34,,,,10.1002/slct.201900860,,2019
1.0,HCOOH,6.0,Null,,3.29473,Mechanical grinding,380.0,3.0,250.0,30.0,2.88,7.67786,19.7,80.3,5.22613,28.98,,,,10.1002/slct.201900860,,2019
1.0,HCOOH,6.0,Null,,3.26423,Mechanical grinding,350.0,1.0,250.0,30.0,2.88,7.67786,21.1,78.9,5.25064,30.23,,,,10.1002/slct.201900860,,2019
1.0,HCOOH,6.0,Null,,3.36107,Mechanical grinding,350.0,2.0,250.0,30.0,2.88,7.67786,20.77,79.23,5.24752,30.01,,,,10.1002/slct.201900860,,2019
1.0,HCOOH,6.0,Null,,3.20923,Mechanical grinding,350.0,4.0,250.0,30.0,2.88,7.67786,23.39,76.61,5.24732,31.03,,,,10.1002/slct.201900860,,2019
1.0,HCOOH,6.0,Null,,3.29213,Mechanical grinding,350.0,3.0,300.0,30.0,2.88,7.67786,16.7,83.3,5.37852,32.56,,,,10.1002/slct.201900860,,2019
0.0,Null,,Al,0.015456,3.76515,MOF-derived,400.0,,220.0,30.0,2.0,8.69951,35.82,64.18,3.53194,1.81,,,,10.1016/j.fuel.2023.128647,Combined hydrogenation of CO2 and CO to methanol using Aerosol-Assisted Metal-Organic Framework-Derived hybrid catalysts,2023
0.488,Null,,Al,0.023176,3.74526,MOF-derived,400.0,,220.0,30.0,2.0,8.69951,16.05,83.95,4.15642,2.62,,,,10.1016/j.fuel.2023.128647,,2023
1.004,Null,,Al,0.031056,3.72858,MOF-derived,400.0,,220.0,30.0,2.0,8.69951,18.33,81.67,3.95767,2.2,,,,10.1016/j.fuel.2023.128647,,2023
2.012,Null,,Al,0.04764,3.71357,MOF-derived,400.0,,220.0,30.0,2.0,8.69951,19.71,80.29,3.81274,1.93,,,,10.1016/j.fuel.2023.128647,,2023
0.9685,Null,,Null,,1.51293,MOF-derived,400.0,,220.0,30.0,2.0,8.69951,16.13,83.87,3.21739,1.0,,,,10.1016/j.fuel.2023.128647,,2023
0.4925,Null,,Al,0.023244,3.80577,MOF-derived,400.0,,220.0,30.0,2.0,8.69951,15.57,84.43,4.24041,2.837,,,,10.1016/j.fuel.2023.128647,,2023
1.0325,Null,,Null,,3.16548,Hydrothermal,60.0,12.0,240.0,30.0,3.0,9.39266,28.5,71.5,5.9162,11.9,,,,10.1039/c9ra00658c,Cylindrical shaped ZnO combined Cu catalysts for the hydrogenation of CO2 to methanol,2019
0.5083,Null,,Null,,3.56953,Hydrothermal,60.0,12.0,240.0,30.0,3.0,9.39266,35.3,64.7,6.21661,17.8,,,,10.1039/c9ra00658c,,2019
0.3441,Null,,Null,,3.26957,Hydrothermal,60.0,12.0,240.0,30.0,3.0,9.39266,45.8,54.2,5.70711,12.6,,,,10.1039/c9ra00658c,,2019
0.2563,Null,,Null,,3.054,Hydrothermal,60.0,12.0,240.0,30.0,3.0,9.39266,51.7,48.3,5.1985,8.7,,,,10.1039/c9ra00658c,,2019
0.4948,Null,,Null,,3.65842,Hydrothermal,60.0,12.0,240.0,30.0,3.0,9.39266,50.1,49.9,5.63835,13.2,,,,10.1039/c9ra00658c,,2019
0.11,Null,,Null,,1.93152,Decomposition-precipitation,400.0,3.0,220.0,30.0,3.0,9.39266,11.3806,88.6194,4.2038,1.71963,,,,10.1039/d1cy01836a,Dependence of copper particle size and interface on methanol and CO formation in CO2 hydrogenation over Cu@ZnO catalysts,2022
0.11,Null,,Null,,1.93152,Decomposition-precipitation,400.0,3.0,240.0,30.0,3.0,9.39266,23.3209,76.6791,4.30481,2.24299,,,,10.1039/d1cy01836a,,2022
0.11,Null,,Null,,1.93152,Decomposition-precipitation,400.0,3.0,260.0,30.0,3.0,9.39266,34.7015,65.2985,4.46978,3.14019,,,,10.1039/d1cy01836a,,2022
0.11,Null,,Null,,1.93152,Decomposition-precipitation,400.0,3.0,280.0,30.0,3.0,9.39266,50.7463,49.2537,4.49128,4.2243,,,,10.1039/d1cy01836a,,2022
0.56,Null,,Null,,2.82731,Decomposition-precipitation,400.0,3.0,220.0,30.0,3.0,9.39266,19.7761,80.2239,4.5071,2.65421,,,,10.1039/d1cy01836a,,2022
0.56,Null,,Null,,2.82731,Decomposition-precipitation,400.0,3.0,240.0,30.0,3.0,9.39266,39.5522,60.4478,4.66639,4.14953,,,,10.1039/d1cy01836a,,2022
0.56,Null,,Null,,2.82731,Decomposition-precipitation,400.0,3.0,260.0,30.0,3.0,9.39266,50.5597,49.4403,4.96504,6.84112,,,,10.1039/d1cy01836a,,2022
0.56,Null,,Null,,2.82731,Decomposition-precipitation,400.0,3.0,280.0,30.0,3.0,9.39266,62.6866,37.3134,5.16806,11.1776,,,,10.1039/d1cy01836a,,2022
1.11,Null,,Null,,3.14415,Decomposition-precipitation,400.0,3.0,220.0,30.0,3.0,9.39266,28.9179,71.0821,4.45886,1.71963,,,,10.1039/d1cy01836a,,2022
1.11,Null,,Null,,3.14415,Decomposition-precipitation,400.0,3.0,240.0,30.0,3.0,9.39266,44.2164,55.7836,4.98146,2.24299,,,,10.1039/d1cy01836a,,2022
1.11,Null,,Null,,3.14415,Decomposition-precipitation,400.0,3.0,260.0,30.0,3.0,9.39266,58.3955,41.6045,5.21296,3.14019,,,,10.1039/d1cy01836a,,2022
1.11,Null,,Null,,3.14415,Decomposition-precipitation,400.0,3.0,280.0,30.0,3.0,9.39266,67.5373,32.4627,5.41147,4.2243,,,,10.1039/d1cy01836a,,2022
0.04,Null,,Al,0.6132,3.62966,Co-precipitation,400.0,3.0,190.0,30.0,3.0,9.21034,16.9435,83.0565,5.05689,5.26246,,,,10.1039/d2nj05903g,Design of Cu/ZnO/Al2O3 catalysts with a rich Cu–ZnO interface for enhanced CO2 hydrogenation to methanol using zinc-malachite as the precursor,2023
0.04,Null,,Al,0.6132,3.62966,Co-precipitation,400.0,3.0,210.0,30.0,3.0,9.21034,30.897,69.103,5.40586,8.98339,,,,10.1039/d2nj05903g,,2023
0.04,Null,,Al,0.6132,3.62966,Co-precipitation,400.0,3.0,230.0,30.0,3.0,9.21034,45.8472,54.1528,5.59781,13.9003,,,,10.1039/d2nj05903g,,2023
0.04,Null,,Al,0.6132,3.62966,Co-precipitation,400.0,3.0,250.0,30.0,3.0,9.21034,60.1329,39.8671,5.53065,17.6502,,,,10.1039/d2nj05903g,,2023
0.4133,Null,,Al,0.4732,4.33205,Co-precipitation,400.0,3.0,190.0,30.0,3.0,9.21034,20.598,79.402,5.46767,8.31894,,,,10.1039/d2nj05903g,,2023
0.4133,Null,,Al,0.4732,4.33205,Co-precipitation,400.0,3.0,210.0,30.0,3.0,9.21034,35.2159,64.7841,5.79065,14.0997,,,,10.1039/d2nj05903g,,2023
0.4133,Null,,Al,0.4732,4.33205,Co-precipitation,400.0,3.0,230.0,30.0,3.0,9.21034,42.87,54.8173,5.99301,20.412,,,,10.1039/d2nj05903g,,2023
0.4133,Null,,Al,0.4732,4.33205,Co-precipitation,400.0,3.0,250.0,30.0,3.0,9.21034,51.25,46.1794,5.93541,22.8704,,,,10.1039/d2nj05903g,,2023
0.4233,Null,,Al,0.52,4.06732,Co-precipitation,400.0,3.0,190.0,30.0,3.0,9.21034,19.6667,80.3333,5.35971,7.37748,,,,10.1039/d2nj05903g,,2023
0.4233,Null,,Al,0.52,4.06732,Co-precipitation,400.0,3.0,210.0,30.0,3.0,9.21034,35.6667,64.3333,5.67756,12.6755,,,,10.1039/d2nj05903g,,2023
0.4233,Null,,Al,0.52,4.06732,Co-precipitation,400.0,3.0,230.0,30.0,3.0,9.21034,47.3333,52.6667,5.87986,18.9669,,,,10.1039/d2nj05903g,,2023
0.4233,Null,,Al,0.52,4.06732,Co-precipitation,400.0,3.0,250.0,30.0,3.0,9.21034,53.77,44.0,5.87156,22.5146,,,,10.1039/d2nj05903g,,2023
0.362,Null,,Al,0.34676,4.35671,Co-precipitation,320.0,3.0,250.0,50.0,8.0,8.69951,0.19,99.81,6.34541,15.58,,,,10.1016/j.mcat.2020.110776,Effect of In2O3 on the structural properties and catalytic performance of the CuO/ZnO/Al2O3 catalyst in CO2 and CO hydrogenation to methanol,2020
0.362,In,0.02122,Al,0.23116,4.58497,Co-precipitation,320.0,3.0,250.0,50.0,8.0,8.69951,0.66,99.34,6.17491,15.24,,,,10.1016/j.mcat.2020.110776,,2020
0.362,In,0.04244,Al,0.1156,4.14313,Co-precipitation,320.0,3.0,250.0,50.0,8.0,8.69951,0.28,99.72,5.66504,14.98,,,,10.1016/j.mcat.2020.110776,,2020
0.362,In,0.06368,Null,,4.15888,Co-precipitation,320.0,3.0,250.0,50.0,8.0,8.69951,0.25,99.75,5.26899,13.99,,,,10.1016/j.mcat.2020.110776,,2020
0.3124,Null,,Al,1.496,4.8752,Co-precipitation,300.0,2.0,200.0,50.0,3.0,9.65503,21.7674,78.2326,2.29714,6.71,,,,10.1016/j.jcat.2022.01.035,Effect of surface basicity over the supported Cu-ZnO catalysts on hydrogenation of CO2 to methanol,2022
0.3124,Null,,Al,1.496,4.8752,Co-precipitation,300.0,2.0,220.0,50.0,3.0,9.65503,30.9767,69.0233,5.71216,8.29,,,,10.1016/j.jcat.2022.01.035,,2022
0.3124,Null,,Al,1.496,4.8752,Co-precipitation,300.0,2.0,240.0,50.0,3.0,9.65503,43.9535,56.0465,5.71489,10.15,,,,10.1016/j.jcat.2022.01.035,,2022
0.3124,Null,,Al,1.496,4.8752,Co-precipitation,300.0,2.0,260.0,50.0,3.0,9.65503,61.7442,38.2558,5.60235,13.82,,,,10.1016/j.jcat.2022.01.035,,2022
0.3124,Null,,Al,1.496,4.8752,Co-precipitation,300.0,2.0,280.0,50.0,3.0,9.65503,73.14,19.17,5.21115,18.73,,,,10.1016/j.jcat.2022.01.035,,2022
0.3124,Mg,0.4731,Al,0.748,5.2575,Co-precipitation,300.0,2.0,200.0,50.0,3.0,9.65503,12.7674,87.2326,5.89885,8.2,,,,10.1016/j.jcat.2022.01.035,,2022
0.3124,Mg,0.4731,Al,0.748,5.2575,Co-precipitation,300.0,2.0,220.0,50.0,3.0,9.65503,24.0698,75.9302,6.07532,11.01,,,,10.1016/j.jcat.2022.01.035,,2022
0.3124,Mg,0.4731,Al,0.748,5.2575,Co-precipitation,300.0,2.0,240.0,50.0,3.0,9.65503,35.7907,64.2093,6.17142,14.76,,,,10.1016/j.jcat.2022.01.035,,2022
0.3124,Mg,0.4731,Al,0.748,5.2575,Co-precipitation,300.0,2.0,260.0,50.0,3.0,9.65503,51.6977,48.3023,6.10901,18.0,,,,10.1016/j.jcat.2022.01.035,,2022
0.3124,Mg,0.4731,Al,0.748,5.2575,Co-precipitation,300.0,2.0,280.0,50.0,3.0,9.65503,70.7442,29.2558,5.8283,22.69,,,,10.1016/j.jcat.2022.01.035,,2022
0.3124,Mg,0.9461,Null,,4.7185,Co-precipitation,300.0,2.0,200.0,50.0,3.0,9.65503,9.2093,90.7907,5.8782,7.45,,,,10.1016/j.jcat.2022.01.035,,2022
[...]
0.54,Pd,0.23,Al,0.1,3.40453,Co-precipitation,400.0,4.0,190.0,40.0,3.0,10.0774,8.15,91.85,4.33723,1.856,,,,10.1006/jcat.2002.3676,,2002
0.54,Pd,0.23,Al,0.1,3.40453,Co-precipitation,400.0,4.0,200.0,40.0,3.0,10.0774,10.31,89.69,4.52664,2.258,,,,10.1006/jcat.2002.3676,,2002
2.28086,Null,,Null,,3.40453,Co-precipitation,,,180.0,60.0,3.0,9.60238,11.7,88.3,4.80974,1.74,,,,10.1023/A:1015316610657,Effect of Pd on Cu-Zn catalysts for the hydrogenation of CO<sub>2</sub> to methanol:: stabilization of Cu metal against CO<sub>2</sub> oxidation,2002
2.28086,Null,,Null,,3.40453,Co-precipitation,,,200.0,60.0,3.0,9.60238,20.3,79.7,4.98369,3.16,,,,10.1023/A:1015316610657,,2002
2.28086,Null,,Null,,,Co-precipitation,,,220.0,60.0,3.0,9.60238,29.1,70.9,4.38781,5.11,,,,10.1023/A:1015316610657,,2002
2.28086,Null,,Null,,,Co-precipitation,,,240.0,60.0,3.0,9.60238,41.7,58.3,4.87589,9.48,,,,10.1023/A:1015316610657,,2002
2.44378,Pd,0.0254576,Null,,, Sequential-precipitation,350.0,,180.0,60.0,3.0,9.60238,9.4,90.6,5.2354,1.8,,,,10.1023/A:1015316610657,,2002
2.44378,Pd,0.0254576,Null,,, Sequential-precipitation,350.0,,200.0,60.0,3.0,9.60238,16.6,83.4,5.65548,3.23,,,,10.1023/A:1015316610657,,2002
2.44378,Pd,0.0254576,Null,,, Sequential-precipitation,350.0,,220.0,60.0,3.0,9.60238,23.8,76.2,4.46812,5.34,,,,10.1023/A:1015316610657,,2002
2.44378,Pd,0.0254576,Null,,, Sequential-precipitation,350.0,,240.0,60.0,3.0,9.60238,33.8,66.2,4.97361,9.19,,,,10.1023/A:1015316610657,,2002
2.28044,Null,,Null,,,Co-precipitation,350.0,,180.0,60.0,3.0,9.60238,10.417,89.583,5.37677,1.7337,,,,10.1006/jcat.2002.3677,Pd-modified Cu-Zn catalysts for methanol synthesis from CO<sub>2</sub>/H<sub>2</sub> mixtures:: Catalytic structures and performance,2002
2.28044,Null,,Null,,,Co-precipitation,350.0,,200.0,60.0,3.0,9.60238,19.167,80.833,5.77871,3.071,,,,10.1006/jcat.2002.3677,,2002
2.28044,Null,,Null,,2.99773,Co-precipitation,350.0,,220.0,60.0,3.0,9.60238,27.9167,72.0833,4.40786,5.1,,,,10.1006/jcat.2002.3677,,2002
2.28044,Null,,Null,,2.99773,Co-precipitation,350.0,,240.0,60.0,3.0,9.60238,40.417,59.583,4.87705,9.452,,,,10.1006/jcat.2002.3677,,2002
2.44333,Pd,0.0464126,Null,,2.99773,Co-precipitation,350.0,,180.0,60.0,3.0,9.60238,19.584,80.416,5.23824,0.158,,,,10.1006/jcat.2002.3677,,2002
2.44333,Pd,0.0464126,Null,,2.99773,Co-precipitation,350.0,,200.0,60.0,3.0,9.60238,41.667,58.333,5.65989,0.267,,,,10.1006/jcat.2002.3677,,2002
2.44333,Pd,0.0464126,Null,,2.5177,Co-precipitation,350.0,,220.0,60.0,3.0,9.60238,60.834,39.166,2.35896,0.524,,,,10.1006/jcat.2002.3677,,2002
2.44333,Pd,0.0464126,Null,,2.5177,Co-precipitation,350.0,,240.0,60.0,3.0,9.60238,84.167,15.833,2.31247,1.325,,,,10.1006/jcat.2002.3677,,2002
2.44333,Pd,0.0464126,Null,,2.5177,Sequential-precipitation,350.0,,180.0,60.0,3.0,9.60238,7.917,92.083,2.26038,1.781,,,,10.1006/jcat.2002.3677,,2002
2.44333,Pd,0.0464126,Null,,2.5177,Sequential-precipitation,350.0,,200.0,60.0,3.0,9.60238,14.584,85.416,2.20895,3.167,,,,10.1006/jcat.2002.3677,,2002
2.44333,Pd,0.0464126,Null,,3.20275,Sequential-precipitation,350.0,,220.0,60.0,3.0,9.60238,22.489,77.511,4.50024,5.295,,,,10.1006/jcat.2002.3677,,2002
2.44333,Pd,0.0464126,Null,,3.20275,Sequential-precipitation,350.0,,240.0,60.0,3.0,9.60238,32.487,67.513,4.99135,9.152,,,,10.1006/jcat.2002.3677,,2002
,Null,,Al,,3.20275,,,,210.0,24.0,3.0,8.69951,33.52,66.48,5.38511,2.702,,,,10.1016/j.cep.2003.10.005,An experimental study of CO2 hydrogenation into methanol involving a zeolite membrane reactor,2004
,Null,,Al,,3.20275,,,,230.0,24.0,3.0,8.69951,48.11,51.89,5.7834,7.027,,,,10.1016/j.cep.2003.10.005,,2004
,Null,,Al,,,,,,250.0,24.0,3.0,8.69951,75.14,24.86,3.68821,14.594,,,,10.1016/j.cep.2003.10.005,,2004
,Null,,Al,,,,,,210.0,24.0,7.0,8.69951,27.62,72.38,4.38342,7.86,,,,10.1016/j.cep.2003.10.005,,2004
,Null,,Al,,,,,,230.0,24.0,7.0,8.69951,40.13,59.87,4.37847,13.103,,,,10.1016/j.cep.2003.10.005,,2004
,Null,,Al,,,,,,250.0,24.0,7.0,8.69951,72.517,27.483,4.13862,23.72,,,,10.1016/j.cep.2003.10.005,,2004
,Null,,Al,,,,,,210.0,20.0,3.0,8.47637,52.0,48.0,4.45553,5.0,,,,10.1016/j.cep.2003.10.005,,2004
,Null,,Al,,,,,,206.0,20.0,3.0,8.47637,25.0,75.0,4.27276,11.6,,,,10.1016/j.cep.2003.10.005,,2004
23.456,Null,,Null,,3.4012,Co-precipitation,350.0,4.0,160.0,7.0,9.0,7.78322,29.8,70.2,0.904218,1.3,,,,10.1016/j.cattod.2012.07.029,,2012
23.456,Null,,Null,,3.4012,Co-precipitation,350.0,4.0,180.0,7.0,9.0,7.78322,55.52,44.48,1.32442,2.79,,,,10.1016/j.cattod.2012.07.029,,2012
23.456,Null,,Null,,3.4012,Co-precipitation,350.0,4.0,200.0,7.0,9.0,7.78322,80.0,20.0,1.62728,8.29,,,,10.1016/j.cattod.2012.07.029,,2012
23.456,Null,,Null,,3.4012,Co-precipitation,350.0,4.0,225.0,7.0,9.0,7.78322,93.07,6.93,1.81482,19.14,,,,10.1016/j.cattod.2012.07.029,,2012
11.2393,Null,,Null,,3.3673,Co-precipitation,350.0,4.0,160.0,7.0,9.0,7.78322,0.96,99.04,1.06471,0.44,,,,10.1016/j.cattod.2012.07.029,,2012
11.2393,Null,,Null,,3.3673,Co-precipitation,350.0,4.0,180.0,7.0,9.0,7.78322,21.23,78.77,1.48614,1.49,,,,10.1016/j.cattod.2012.07.029,,2012
11.2393,Null,,Null,,3.3673,Co-precipitation,350.0,4.0,200.0,7.0,9.0,7.78322,42.45,57.55,1.81482,3.07,,,,10.1016/j.cattod.2012.07.029,,2012
11.2393,Null,,Null,,3.3673,Co-precipitation,350.0,4.0,225.0,7.0,9.0,7.78322,71.03,28.97,2.04898,7.59,,,,10.1016/j.cattod.2012.07.029,,2012
11.2393,Null,,Null,,3.3673,Co-precipitation,350.0,4.0,250.0,7.0,9.0,7.78322,89.39,10.61,1.88251,17.01,,,,10.1016/j.cattod.2012.07.029,,2012
2.93199,Null,,Null,,3.3322,Co-precipitation,350.0,4.0,140.0,7.0,9.0,7.78322,0.19,99.81,1.4422,0.71,,,,10.1016/j.cattod.2012.07.029,,2012
2.93199,Null,,Null,,3.3322,Co-precipitation,350.0,4.0,160.0,7.0,9.0,7.78322,19.99,80.01,1.89612,2.2,,,,10.1016/j.cattod.2012.07.029,,2012
2.93199,Null,,Null,,3.3322,Co-precipitation,350.0,4.0,180.0,7.0,9.0,7.78322,48.17,51.83,2.2628,4.94,,,,10.1016/j.cattod.2012.07.029,,2012
2.93199,Null,,Null,,3.3322,Co-precipitation,350.0,4.0,200.0,7.0,9.0,7.78322,73.07,26.93,2.41054,11.15,,,,10.1016/j.cattod.2012.07.029,,2012
2.93199,Null,,Null,,3.3322,Co-precipitation,350.0,4.0,225.0,7.0,9.0,7.78322,85.72,14.28,2.00418,18.17,,,,10.1016/j.cattod.2012.07.029,,2012
2.93199,Null,,Null,,3.3322,Co-precipitation,350.0,4.0,250.0,7.0,9.0,7.78322,91.84,8.16,1.50851,22.61,,,,10.1016/j.cattod.2012.07.029,,2012
2.93199,Null,,Null,,2.89037,Co-precipitation,400.0,4.0,140.0,7.0,9.0,7.78322,0.78,99.22,1.17248,0.71,,,,10.1016/j.cattod.2012.07.029,,2012
2.93199,Null,,Null,,2.89037,Co-precipitation,400.0,4.0,160.0,7.0,9.0,7.78322,12.66,87.34,1.69928,1.68,,,,10.1016/j.cattod.2012.07.029,,2012
2.93199,Null,,Null,,2.89037,Co-precipitation,400.0,4.0,180.0,7.0,9.0,7.78322,33.47,66.53,2.14827,3.62,,,,10.1016/j.cattod.2012.07.029,,2012
2.93199,Null,,Null,,2.89037,Co-precipitation,400.0,4.0,200.0,7.0,9.0,7.78322,60.82,39.18,2.37118,7.95,,,,10.1016/j.cattod.2012.07.029,,2012
2.93199,Null,,Null,,2.89037,Co-precipitation,400.0,4.0,225.0,7.0,9.0,7.78322,85.72,14.28,2.23858,18.17,,,,10.1016/j.cattod.2012.07.029,,2012
2.93199,Null,,Null,,2.89037,Co-precipitation,400.0,4.0,250.0,7.0,9.0,7.78322,94.7,5.3,1.57898,27.33,,,,10.1016/j.cattod.2012.07.029,,2012
2.93199,Null,,Null,,2.63906,Co-precipitation,450.0,4.0,140.0,7.0,9.0,7.78322,0.78,99.22,0.618962,0.35,,,,10.1016/j.cattod.2012.07.029,,2012
2.93199,Null,,Null,,2.63906,Co-precipitation,450.0,4.0,160.0,7.0,9.0,7.78322,28.58,71.42,1.24415,1.84,,,,10.1016/j.cattod.2012.07.029,,2012
2.93199,Null,,Null,,2.63906,Co-precipitation,450.0,4.0,180.0,7.0,9.0,7.78322,51.84,48.16,1.63705,4.13,,,,10.1016/j.cattod.2012.07.029,,2012
2.93199,Null,,Null,,2.63906,Co-precipitation,450.0,4.0,200.0,7.0,9.0,7.78322,78.37,21.63,2.02419,11.23,,,,10.1016/j.cattod.2012.07.029,,2012
2.93199,Null,,Null,,2.63906,Co-precipitation,450.0,4.0,225.0,7.0,9.0,7.78322,93.47,6.53,2.15871,21.9,,,,10.1016/j.cattod.2012.07.029,,2012
2.93199,Null,,Null,,2.63906,Co-precipitation,450.0,4.0,250.0,7.0,9.0,7.78322,95.92,4.08,1.59939,27.33,,,,10.1016/j.cattod.2012.07.029,,2012
2.93199,Null,,Null,,2.30259,Co-precipitation,500.0,4.0,140.0,7.0,9.0,7.78322,0.96,99.04,0.845868,0.8,,,,10.1016/j.cattod.2012.07.029,,2012
2.93199,Null,,Null,,2.30259,Co-precipitation,500.0,4.0,160.0,7.0,9.0,7.78322,10.25,89.75,1.32442,1.59,,,,10.1016/j.cattod.2012.07.029,,2012
2.93199,Null,,Null,,2.30259,Co-precipitation,500.0,4.0,180.0,7.0,9.0,7.78322,25.72,74.28,1.74222,2.91,,,,10.1016/j.cattod.2012.07.029,,2012
2.93199,Null,,Null,,2.30259,Co-precipitation,500.0,4.0,200.0,7.0,9.0,7.78322,53.47,46.53,2.04898,6.01,,,,10.1016/j.cattod.2012.07.029,,2012
2.93199,Null,,Null,,2.30259,Co-precipitation,500.0,4.0,225.0,7.0,9.0,7.78322,77.15,22.85,2.29253,11.77,,,,10.1016/j.cattod.2012.07.029,,2012