File: data/data_modification_for_Ea/Test_Ea_0611_version_1_cleansed.csv
Molar ratio (Zn:Cu),Promoter 1,Promoter 1 ratio (Promoter 1:Cu),Promoter 2,Promoter 2 ratio (Promoter 2:Cu),Catalyst surface area (m2/g) (LN scale),Type of sysnthesis procedure,Calcination temperature (°C),Calcination time (h),Temperature (°C),Pressure (bar),H2/CO2 ratio (-),GHSV (mL/g.h) (LN scale),Methanol based Ea (kJ/mol),Unnamed: 14,Unnamed: 15,Unnamed: 16,DOI,Name,Year
2.0,Null,,Null,,3.10459,Co-precipitation,350.0,4.0,200.0,30,3.0,10.0858,21.2562,,,,10.1016/j.apcatb.2022.122233,Boosting CO2 hydrogenation to methanol by adding trace amount of Au into Cu/ZnO catalysts,2023
2.0,Null,,Null,,3.10459,Co-precipitation,350.0,4.0,225.0,30,3.0,10.0858,21.2562,,,,10.1016/j.apcatb.2022.122233,,2023
2.0,Null,,Null,,3.10459,Co-precipitation,350.0,4.0,250.0,30,3.0,10.0858,21.2562,,,,10.1016/j.apcatb.2022.122233,,2023
2.0,Au,0.001,Null,,3.46261,Co-precipitation,350.0,4.0,200.0,30,3.0,10.0858,24.2514,,,,10.1016/j.apcatb.2022.122233,,2023
2.0,Au,0.001,Null,,3.46261,Co-precipitation,350.0,4.0,225.0,30,3.0,10.0858,24.2514,,,,10.1016/j.apcatb.2022.122233,,2023
2.0,Au,0.001,Null,,3.46261,Co-precipitation,350.0,4.0,250.0,30,3.0,10.0858,24.2514,,,,10.1016/j.apcatb.2022.122233,,2023
2.0,Au,0.005,Null,,3.46574,Co-precipitation,350.0,4.0,200.0,30,3.0,10.0858,23.0048,,,,10.1016/j.apcatb.2022.122233,,2023
2.0,Au,0.005,Null,,3.46574,Co-precipitation,350.0,4.0,225.0,30,3.0,10.0858,23.0048,,,,10.1016/j.apcatb.2022.122233,,2023
2.0,Au,0.005,Null,,3.46574,Co-precipitation,350.0,4.0,250.0,30,3.0,10.0858,23.0048,,,,10.1016/j.apcatb.2022.122233,,2023
2.0,Au,0.02,Null,,3.24259,Co-precipitation,350.0,4.0,200.0,30,3.0,10.0858,28.4034,,,,10.1016/j.apcatb.2022.122233,,2023
2.0,Au,0.02,Null,,3.24259,Co-precipitation,350.0,4.0,225.0,30,3.0,10.0858,28.4034,,,,10.1016/j.apcatb.2022.122233,,2023
2.0,Au,0.02,Null,,3.24259,Co-precipitation,350.0,4.0,250.0,30,3.0,10.0858,28.4034,,,,10.1016/j.apcatb.2022.122233,,2023
2.0,Au,0.05,Null,,3.22287,Co-precipitation,350.0,4.0,200.0,30,3.0,10.0858,38.9296,,,,10.1016/j.apcatb.2022.122233,,2023
2.0,Au,0.05,Null,,3.22287,Co-precipitation,350.0,4.0,225.0,30,3.0,10.0858,38.9296,,,,10.1016/j.apcatb.2022.122233,,2023
2.0,Au,0.05,Null,,3.22287,Co-precipitation,350.0,4.0,250.0,30,3.0,10.0858,38.9296,,,,10.1016/j.apcatb.2022.122233,,2023
0.7319,Null,,Zr,0.6616,5.09375,Co-precipitation,350.0,2.0,200.0,20,3.0,9.65503,30.5514,,,,10.1016/j.cej.2017.02.010,CO2 hydrogenation to methanol over CuO–ZnO–ZrO2–SiO2 catalysts: Effects of SiO2 contents,2017
0.7319,Null,,Zr,0.6616,5.09375,Co-precipitation,350.0,2.0,220.0,20,3.0,9.65503,30.5514,,,,10.1016/j.cej.2017.02.010,,2017
0.7319,Null,,Zr,0.6616,5.09375,Co-precipitation,350.0,2.0,240.0,20,3.0,9.65503,30.5514,,,,10.1016/j.cej.2017.02.010,,2017
0.7,Si,0.0001764,Zr,0.6545,5.16479,Co-precipitation,350.0,2.0,200.0,20,3.0,9.65503,21.6111,,,,10.1016/j.cej.2017.02.010,,2017
0.7,Si,0.0001764,Zr,0.6545,5.16479,Co-precipitation,350.0,2.0,220.0,20,3.0,9.65503,21.6111,,,,10.1016/j.cej.2017.02.010,,2017
0.7,Si,0.0001764,Zr,0.6545,5.16479,Co-precipitation,350.0,2.0,240.0,20,3.0,9.65503,21.6111,,,,10.1016/j.cej.2017.02.010,,2017
0.7384,Si,0.0004577,Zr,0.6528,5.36598,Co-precipitation,350.0,2.0,200.0,20,3.0,9.65503,27.5408,,,,10.1016/j.cej.2017.02.010,,2017
0.7384,Si,0.0004577,Zr,0.6528,5.36598,Co-precipitation,350.0,2.0,220.0,20,3.0,9.65503,27.5408,,,,10.1016/j.cej.2017.02.010,,2017
0.7384,Si,0.0004577,Zr,0.6528,5.36598,Co-precipitation,350.0,2.0,240.0,20,3.0,9.65503,27.5408,,,,10.1016/j.cej.2017.02.010,,2017
0.6948,Si,0.00065172,Zr,0.6782,5.23111,Co-precipitation,350.0,2.0,200.0,20,3.0,9.65503,33.0272,,,,10.1016/j.cej.2017.02.010,,2017
0.6948,Si,0.00065172,Zr,0.6782,5.23111,Co-precipitation,350.0,2.0,220.0,20,3.0,9.65503,33.0272,,,,10.1016/j.cej.2017.02.010,,2017
0.6948,Si,0.00065172,Zr,0.6782,5.23111,Co-precipitation,350.0,2.0,240.0,20,3.0,9.65503,33.0272,,,,10.1016/j.cej.2017.02.010,,2017
0.681,Si,0.001128,Zr,0.6473,4.97673,Co-precipitation,350.0,2.0,200.0,20,3.0,9.65503,29.1462,,,,10.1016/j.cej.2017.02.010,,2017
0.681,Si,0.001128,Zr,0.6473,4.97673,Co-precipitation,350.0,2.0,220.0,20,3.0,9.65503,29.1462,,,,10.1016/j.cej.2017.02.010,,2017
0.681,Si,0.001128,Zr,0.6473,4.97673,Co-precipitation,350.0,2.0,240.0,20,3.0,9.65503,29.1462,,,,10.1016/j.cej.2017.02.010,,2017
0.7069,Si,0.0021187,Zr,0.6416,4.80402,Co-precipitation,350.0,2.0,200.0,20,3.0,9.65503,29.9837,,,,10.1016/j.cej.2017.02.010,,2017
0.7069,Si,0.0021187,Zr,0.6416,4.80402,Co-precipitation,350.0,2.0,220.0,20,3.0,9.65503,29.9837,,,,10.1016/j.cej.2017.02.010,,2017
0.7069,Si,0.0021187,Zr,0.6416,4.80402,Co-precipitation,350.0,2.0,240.0,20,3.0,9.65503,29.9837,,,,10.1016/j.cej.2017.02.010,,2017
0.11,Null,,Null,,1.93152,Decomposition-precipitation,400.0,3.0,220.0,30,3.0,9.39266,14.6671,,,,10.1039/d1cy01836a,Dependence of copper particle size and interface on methanol and CO formation in CO2 hydrogenation over Cu@ZnO catalysts,2022
0.11,Null,,Null,,1.93152,Decomposition-precipitation,400.0,3.0,240.0,30,3.0,9.39266,14.6671,,,,10.1039/d1cy01836a,,2022
0.11,Null,,Null,,1.93152,Decomposition-precipitation,400.0,3.0,260.0,30,3.0,9.39266,14.6671,,,,10.1039/d1cy01836a,,2022
0.56,Null,,Null,,2.82731,Decomposition-precipitation,400.0,3.0,220.0,30,3.0,9.39266,25.1226,,,,10.1039/d1cy01836a,,2022
0.56,Null,,Null,,2.82731,Decomposition-precipitation,400.0,3.0,240.0,30,3.0,9.39266,26.0048,,,,10.1039/d1cy01836a,,2022
0.56,Null,,Null,,2.82731,Decomposition-precipitation,400.0,3.0,260.0,30,3.0,9.39266,26.0048,,,,10.1039/d1cy01836a,,2022
1.11,Null,,Null,,3.14415,Decomposition-precipitation,400.0,3.0,220.0,30,3.0,9.39266,41.7121,,,,10.1039/d1cy01836a,,2022
1.11,Null,,Null,,3.14415,Decomposition-precipitation,400.0,3.0,240.0,30,3.0,9.39266,35.5275,,,,10.1039/d1cy01836a,,2022
1.11,Null,,Null,,3.14415,Decomposition-precipitation,400.0,3.0,260.0,30,3.0,9.39266,35.5275,,,,10.1039/d1cy01836a,,2022
0.04,Null,,Al,0.6132,3.62966,Co-precipitation,400.0,3.0,190.0,30,3.0,9.21034,26.4041,,,,10.1039/d2nj05903g,Design of Cu/ZnO/Al2O3 catalysts with a rich Cu–ZnO interface for enhanced CO2 hydrogenation to methanol using zinc-malachite as the precursor,2023
0.04,Null,,Al,0.6132,3.62966,Co-precipitation,400.0,3.0,210.0,30,3.0,9.21034,26.4041,,,,10.1039/d2nj05903g,,2023
0.04,Null,,Al,0.6132,3.62966,Co-precipitation,400.0,3.0,230.0,30,3.0,9.21034,26.4041,,,,10.1039/d2nj05903g,,2023
0.4133,Null,,Al,0.4732,4.33205,Co-precipitation,400.0,3.0,190.0,30,3.0,9.21034,25.5797,,,,10.1039/d2nj05903g,,2023
0.4133,Null,,Al,0.4732,4.33205,Co-precipitation,400.0,3.0,210.0,30,3.0,9.21034,25.5797,,,,10.1039/d2nj05903g,,2023
0.4133,Null,,Al,0.4732,4.33205,Co-precipitation,400.0,3.0,230.0,30,3.0,9.21034,25.5797,,,,10.1039/d2nj05903g,,2023
0.4233,Null,,Al,0.52,4.06732,Co-precipitation,400.0,3.0,190.0,30,3.0,9.21034,25.5797,,,,10.1039/d2nj05903g,,2023
0.4233,Null,,Al,0.52,4.06732,Co-precipitation,400.0,3.0,210.0,30,3.0,9.21034,25.5797,,,,10.1039/d2nj05903g,,2023
0.4233,Null,,Al,0.52,4.06732,Co-precipitation,400.0,3.0,230.0,30,3.0,9.21034,25.5797,,,,10.1039/d2nj05903g,,2023
0.3124,Mg,0.4731,Al,0.748,5.2575,Co-precipitation,300.0,2.0,200.0,50,3.0,9.65503,13.8278,,,,10.1016/j.jcat.2022.01.035,Effect of surface basicity over the supported Cu-ZnO catalysts on hydrogenation of CO2 to methanol,2022
0.3124,Mg,0.4731,Al,0.748,5.2575,Co-precipitation,300.0,2.0,220.0,50,3.0,9.65503,13.8278,,,,10.1016/j.jcat.2022.01.035,,2022
0.3124,Mg,0.4731,Al,0.748,5.2575,Co-precipitation,300.0,2.0,240.0,50,3.0,9.65503,13.8278,,,,10.1016/j.jcat.2022.01.035,,2022
0.3124,Mg,0.9461,Null,,4.7185,Co-precipitation,300.0,2.0,200.0,50,3.0,9.65503,14.1574,,,,10.1016/j.jcat.2022.01.035,,2022
0.3124,Mg,0.9461,Null,,4.7185,Co-precipitation,300.0,2.0,220.0,50,3.0,9.65503,14.1574,,,,10.1016/j.jcat.2022.01.035,,2022
0.3124,Mg,0.9461,Null,,4.7185,Co-precipitation,300.0,2.0,240.0,50,3.0,9.65503,14.1574,,,,10.1016/j.jcat.2022.01.035,,2022
0.4313,Null,,Al,1.5664,4.83628,Co-precipitation,400.0,2.0,200.0,30,3.0,8.69951,26.5878,,,,10.1007/s40242-016-6130-6,Effect of Zr addition on catalytic performance of Cu-Zn-Al oxides for CO2 hydrogenation to methanol,2016
0.4313,Null,,Al,1.5664,4.83628,Co-precipitation,400.0,2.0,220.0,30,3.0,8.69951,26.5878,,,,10.1007/s40242-016-6130-6,,2016
0.4313,Null,,Al,1.5664,4.83628,Co-precipitation,400.0,2.0,240.0,30,3.0,8.69951,26.5878,,,,10.1007/s40242-016-6130-6,,2016
0.7295,Null,,Zr,0.6433,4.82028,Reverse co-precipitation,350.0,2.0,200.0,20,3.0,9.65503,25.8789,,,,10.1016/j.cej.2017.11.117,"Enhanced activity, selectivity and stability of a CuO-ZnO-ZrO2 catalyst by adding graphene oxide for CO2 hydrogenation to methanol",2018
0.7295,Null,,Zr,0.6433,4.82028,Reverse co-precipitation,350.0,2.0,220.0,20,3.0,9.65503,25.8789,,,,10.1016/j.cej.2017.11.117,,2018
0.7295,Null,,Zr,0.6433,4.82028,Reverse co-precipitation,350.0,2.0,240.0,20,3.0,9.65503,25.8789,,,,10.1016/j.cej.2017.11.117,,2018
0.7362,GO,0.03217,Zr,0.6742,4.91265,Reverse co-precipitation,350.0,2.0,200.0,20,3.0,9.65503,20.3609,,,,10.1016/j.cej.2017.11.117,,2018
0.7362,GO,0.03217,Zr,0.6742,4.91265,Reverse co-precipitation,350.0,2.0,220.0,20,3.0,9.65503,20.3609,,,,10.1016/j.cej.2017.11.117,,2018
0.7362,GO,0.03217,Zr,0.6742,4.91265,Reverse co-precipitation,350.0,2.0,240.0,20,3.0,9.65503,20.3609,,,,10.1016/j.cej.2017.11.117,,2018
0.7472,GO,0.05332,Zr,0.6763,4.97673,Reverse co-precipitation,350.0,2.0,200.0,20,3.0,9.65503,23.3322,,,,10.1016/j.cej.2017.11.117,,2018
0.7472,GO,0.05332,Zr,0.6763,4.97673,Reverse co-precipitation,350.0,2.0,220.0,20,3.0,9.65503,23.3322,,,,10.1016/j.cej.2017.11.117,,2018
0.7472,GO,0.05332,Zr,0.6763,4.97673,Reverse co-precipitation,350.0,2.0,240.0,20,3.0,9.65503,23.3322,,,,10.1016/j.cej.2017.11.117,,2018
0.7626,GO,0.1372,Zr,0.6816,4.85203,Reverse co-precipitation,350.0,2.0,200.0,20,3.0,9.65503,19.9093,,,,10.1016/j.cej.2017.11.117,,2018
0.7626,GO,0.1372,Zr,0.6816,4.85203,Reverse co-precipitation,350.0,2.0,220.0,20,3.0,9.65503,19.9093,,,,10.1016/j.cej.2017.11.117,,2018
0.7626,GO,0.1372,Zr,0.6816,4.85203,Reverse co-precipitation,350.0,2.0,240.0,20,3.0,9.65503,19.9093,,,,10.1016/j.cej.2017.11.117,,2018
0.7575,GO,0.1912,Zr,0.6727,4.65396,Reverse co-precipitation,350.0,2.0,200.0,20,3.0,9.65503,33.5615,,,,10.1016/j.cej.2017.11.117,,2018
0.7575,GO,0.1912,Zr,0.6727,4.65396,Reverse co-precipitation,350.0,2.0,220.0,20,3.0,9.65503,33.5615,,,,10.1016/j.cej.2017.11.117,,2018
0.7575,GO,0.1912,Zr,0.6727,4.65396,Reverse co-precipitation,350.0,2.0,240.0,20,3.0,9.65503,33.5615,,,,10.1016/j.cej.2017.11.117,,2018
0.784,GO,0.4648,Zr,0.6697,4.55388,Reverse co-precipitation,350.0,2.0,200.0,20,3.0,9.65503,37.8053,,,,10.1016/j.cej.2017.11.117,,2018
0.784,GO,0.4648,Zr,0.6697,4.55388,Reverse co-precipitation,350.0,2.0,220.0,20,3.0,9.65503,37.8053,,,,10.1016/j.cej.2017.11.117,,2018
0.784,GO,0.4648,Zr,0.6697,4.55388,Reverse co-precipitation,350.0,2.0,240.0,20,3.0,9.65503,37.8053,,,,10.1016/j.cej.2017.11.117,,2018
0.4286,a_SiO2,0.01428,Al,0.9524,4.54329,Solid phase grinding,330.0,3.0,180.0,43,5.0,7.6009,22.3417,,,,10.1016/j.apcatb.2023.123099,Enhancing methanol selectivity of commercial Cu/ZnO/Al2O3 catalyst in CO2 hydrogenation by surface silylation,2023
0.4286,a_SiO2,0.01428,Al,0.9524,4.54329,Solid phase grinding,330.0,3.0,210.0,43,5.0,7.6009,22.3417,,,,10.1016/j.apcatb.2023.123099,,2023
0.4286,a_SiO2,0.01428,Al,0.9524,4.54329,Solid phase grinding,330.0,3.0,225.0,43,5.0,7.6009,22.3417,,,,10.1016/j.apcatb.2023.123099,,2023
26.0,ZrO2/S,20.0,Null,,4.54329,Co-precipitation,500.0,3.0,230.0,45,3.0,9.2873,119.172,,,,10.1016/j.jcat.2020.11.039,,2021
26.0,ZrO2/S,20.0,Null,,4.54329,Co-precipitation,500.0,3.0,260.287,45,3.0,9.2873,119.172,,,,10.1016/j.jcat.2020.11.039,,2021
26.0,ZrO2/S,20.0,Null,,4.54329,Co-precipitation,500.0,3.0,290.164,45,3.0,9.2873,119.172,,,,10.1016/j.jcat.2020.11.039,,2021
13.0,ZrO2/S,20.0,Null,,4.56435,Co-precipitation,500.0,3.0,230.215,45,3.0,9.2873,116.825,,,,10.1016/j.jcat.2020.11.039,,2021
13.0,ZrO2/S,20.0,Null,,4.56435,Co-precipitation,500.0,3.0,260.0,45,3.0,9.2873,116.825,,,,10.1016/j.jcat.2020.11.039,,2021
13.0,ZrO2/S,20.0,Null,,4.56435,Co-precipitation,500.0,3.0,289.587,45,3.0,9.2873,116.825,,,,10.1016/j.jcat.2020.11.039,,2021
6.5,ZrO2/S,20.0,Null,,4.76217,Co-precipitation,500.0,3.0,230.0,45,3.0,9.2873,87.7125,,,,10.1016/j.jcat.2020.11.039,,2021
6.5,ZrO2/S,20.0,Null,,4.76217,Co-precipitation,500.0,3.0,260.202,45,3.0,9.2873,87.7125,,,,10.1016/j.jcat.2020.11.039,,2021
6.5,ZrO2/S,20.0,Null,,6.10256,Co-precipitation,500.0,3.0,290.0,45,3.0,9.2873,87.7125,,,,10.1016/j.jcat.2020.11.039,,2021
1.0,Null,,Null,,3.18221,Decomposition-precipitation,50.0,12.0,230.0,45,3.0,9.2873,59.0,,,,10.1016/j.jcat.2017.12.029,Hydrogen spillover enabled active Cu sites for methanol synthesis from CO2 hydrogenation over Pd doped CuZn catalysts,2018
1.0,Null,,Null,,3.18221,Decomposition-precipitation,50.0,12.0,250.0,45,3.0,9.2873,59.0,,,,10.1016/j.jcat.2017.12.029,,2018
1.0,Null,,Null,,3.18221,Decomposition-precipitation,50.0,12.0,270.0,45,3.0,9.2873,59.0,,,,10.1016/j.jcat.2017.12.029,,2018
1.0,Null,,Null,,3.18221,Decomposition-precipitation,50.0,12.0,290.0,45,3.0,9.2873,59.0,,,,10.1016/j.jcat.2017.12.029,,2018
1.0,Pd,0.005,Null,,2.90142,Decomposition-precipitation,50.0,12.0,230.0,45,3.0,9.2873,52.0,,,,10.1016/j.jcat.2017.12.029,,2018
1.0,Pd,0.005,Null,,2.90142,Decomposition-precipitation,50.0,12.0,250.0,45,3.0,9.2873,52.0,,,,10.1016/j.jcat.2017.12.029,,2018
1.0,Pd,0.005,Null,,2.90142,Decomposition-precipitation,50.0,12.0,270.0,45,3.0,9.2873,52.0,,,,10.1016/j.jcat.2017.12.029,,2018
1.0,Pd,0.005,Null,,2.90142,Decomposition-precipitation,50.0,12.0,290.0,45,3.0,9.2873,52.0,,,,10.1016/j.jcat.2017.12.029,,2018
1.0,Pd,0.01,Null,,2.97553,Decomposition-precipitation,50.0,12.0,230.0,45,3.0,9.2873,31.0,,,,10.1016/j.jcat.2017.12.029,,2018
1.0,Pd,0.01,Null,,2.97553,Decomposition-precipitation,50.0,12.0,250.0,45,3.0,9.2873,31.0,,,,10.1016/j.jcat.2017.12.029,,2018
1.0,Pd,0.01,Null,,2.97553,Decomposition-precipitation,50.0,12.0,270.0,45,3.0,9.2873,31.0,,,,10.1016/j.jcat.2017.12.029,,2018
1.0,Pd,0.01,Null,,2.97553,Decomposition-precipitation,50.0,12.0,290.0,45,3.0,9.2873,31.0,,,,10.1016/j.jcat.2017.12.029,,2018
1.0,Pd,0.02,Null,,2.98568,Decomposition-precipitation,50.0,12.0,230.0,45,3.0,9.2873,45.0,,,,10.1016/j.jcat.2017.12.029,,2018
1.0,Pd,0.02,Null,,2.98568,Decomposition-precipitation,50.0,12.0,250.0,45,3.0,9.2873,45.0,,,,10.1016/j.jcat.2017.12.029,,2018
1.0,Pd,0.02,Null,,2.98568,Decomposition-precipitation,50.0,12.0,270.0,45,3.0,9.2873,45.0,,,,10.1016/j.jcat.2017.12.029,,2018
1.0,Pd,0.02,Null,,2.98568,Decomposition-precipitation,50.0,12.0,290.0,45,3.0,9.2873,45.0,,,,10.1016/j.jcat.2017.12.029,,2018
1.0,Pd,0.03,Null,,2.99072,Decomposition-precipitation,50.0,12.0,230.0,45,3.0,9.2873,62.0,,,,10.1016/j.jcat.2017.12.029,,2018
1.0,Pd,0.03,Null,,2.99072,Decomposition-precipitation,50.0,12.0,250.0,45,3.0,9.2873,62.0,,,,10.1016/j.jcat.2017.12.029,,2018
1.0,Pd,0.03,Null,,2.99072,Decomposition-precipitation,50.0,12.0,270.0,45,3.0,9.2873,62.0,,,,10.1016/j.jcat.2017.12.029,,2018
1.0,Pd,0.03,Null,,2.99072,Decomposition-precipitation,50.0,12.0,290.0,45,3.0,9.2873,62.0,,,,10.1016/j.jcat.2017.12.029,,2018
1.0,Pd,0.04,Null,,3.94932,Decomposition-precipitation,50.0,12.0,230.0,45,3.0,9.2873,70.0,,,,10.1016/j.jcat.2017.12.029,,2018
1.0,Pd,0.04,Null,,3.69635,Decomposition-precipitation,50.0,12.0,250.0,45,3.0,9.2873,70.0,,,,10.1016/j.jcat.2017.12.029,,2018
1.0,Pd,0.04,Null,,4.18205,Decomposition-precipitation,50.0,12.0,270.0,45,3.0,9.2873,70.0,,,,10.1016/j.jcat.2017.12.029,,2018
1.0,Pd,0.04,Null,,4.02892,Decomposition-precipitation,50.0,12.0,290.0,45,3.0,9.2873,70.0,,,,10.1016/j.jcat.2017.12.029,,2018
2.5,Null,,Null,,1.94591,Impregnation,500.0,2.0,190.0,30,3.0,8.18869,58.2058,,,,10.1007/s11164-023-05063-x,,2023
2.5,Null,,Null,,1.94591,Impregnation,500.0,2.0,230.0,30,3.0,8.18869,58.2058,,,,10.1007/s11164-023-05063-x,,2023
2.5,Null,,Null,,1.94591,Impregnation,500.0,2.0,250.0,30,3.0,8.18869,58.2058,,,,10.1007/s11164-023-05063-x,,2023
2.5,Null,,Null,,1.94591,Impregnation,500.0,2.0,270.0,30,3.0,8.18869,58.2058,,,,10.1007/s11164-023-05063-x,,2023
2.5,Null,,Null,,1.94591,Impregnation,500.0,2.0,290.0,30,3.0,8.18869,58.2058,,,,10.1007/s11164-023-05063-x,,2023
0.75,Null,,Null,,3.05871,Co-precipitation,450.0,4.0,220.0,40,3.0,7.31322,33.3392,,,,10.1016/j.matchemphys.2018.05.028,Preparation of novel bimetallic CuZn-BTC coordination polymer nanorod for methanol synthesis from CO2 hydrogenation,2018
0.75,Null,,Null,,3.05871,Co-precipitation,450.0,4.0,230.0,40,3.0,7.31322,33.3392,,,,10.1016/j.matchemphys.2018.05.028,,2018
0.75,Null,,Null,,3.05871,Co-precipitation,450.0,4.0,240.0,40,3.0,7.31322,33.3392,,,,10.1016/j.matchemphys.2018.05.028,,2018
0.75,Null,,Null,,3.05871,Co-precipitation,450.0,4.0,250.0,40,3.0,7.31322,33.3392,,,,10.1016/j.matchemphys.2018.05.028,,2018
0.75,Null,,Null,,3.05871,Co-precipitation,450.0,4.0,260.0,40,3.0,7.31322,33.3392,,,,10.1016/j.matchemphys.2018.05.028,,2018
0.78,Null,,Null,,3.57951,MOF-derived,450.0,3.0,220.0,40,3.0,7.31322,54.194,,,,10.1016/j.matchemphys.2018.05.028,,2018
0.78,Null,,Null,,4.81224,MOF-derived,450.0,3.0,230.0,40,3.0,7.31322,54.194,,,,10.1016/j.matchemphys.2018.05.028,,2018
0.78,Null,,Null,,4.92843,MOF-derived,450.0,3.0,240.0,40,3.0,7.31322,54.194,,,,10.1016/j.matchemphys.2018.05.028,,2018
[...]
0.492119,Null,,Zr,0.259194,5.0626,Co-precipitation,350.0,4.0,220.0,30,3.0,9.21034,34.2363,,,,10.1016/j.apcatb.2014.01.035,,2014
0.492119,Null,,Zr,0.259194,5.0626,Co-precipitation,350.0,4.0,240.0,30,3.0,9.21034,34.2363,,,,10.1016/j.apcatb.2014.01.035,,2014
0.491135,Null,,Zr,0.281915,4.8828,Co-precipitation,350.0,4.0,180.0,30,3.0,9.21034,40.6287,,,,10.1016/j.apcatb.2014.01.035,,2014
0.491135,Null,,Zr,0.281915,4.8828,Co-precipitation,350.0,4.0,200.0,30,3.0,9.21034,40.6287,,,,10.1016/j.apcatb.2014.01.035,,2014
0.491135,Null,,Zr,0.281915,4.8828,Co-precipitation,350.0,4.0,220.0,30,3.0,9.21034,40.6287,,,,10.1016/j.apcatb.2014.01.035,,2014
0.491135,Null,,Zr,0.281915,4.8828,Co-precipitation,350.0,4.0,240.0,30,3.0,9.21034,40.6287,,,,10.1016/j.apcatb.2014.01.035,,2014
0.487676,Null,,Zr,0.272887,5.0876,Co-precipitation,350.0,4.0,180.0,30,3.0,9.21034,36.4362,,,,10.1016/j.apcatb.2014.01.035,,2014
0.487676,Null,,Zr,0.272887,5.0876,Co-precipitation,350.0,4.0,200.0,30,3.0,9.21034,36.4362,,,,10.1016/j.apcatb.2014.01.035,,2014
0.487676,Null,,Zr,0.272887,5.0876,Co-precipitation,350.0,4.0,220.0,30,3.0,9.21034,36.4362,,,,10.1016/j.apcatb.2014.01.035,,2014
0.487676,Null,,Zr,0.272887,5.0876,Co-precipitation,350.0,4.0,240.0,30,3.0,9.21034,36.4362,,,,10.1016/j.apcatb.2014.01.035,,2014
0.557078,Null,,Al,0.118721,3.6763,Co-precipitation,400.0,4.0,160.0,40,3.0,10.0774,43.2605,,,,10.1006/jcat.2002.3676,Reverse topotactic transformation of a Cu-Zn-Al catalyst during wet Pd impregnation:: Relevance for the performance in methanol synthesis from CO<sub>2</sub>/H<sub>2</sub> mixtures,2002
0.557078,Null,,Al,0.118721,3.6763,Co-precipitation,400.0,4.0,170.0,40,3.0,10.0774,43.2605,,,,10.1006/jcat.2002.3676,,2002
0.557078,Null,,Al,0.118721,3.6763,Co-precipitation,400.0,4.0,180.0,40,3.0,10.0774,43.2605,,,,10.1006/jcat.2002.3676,,2002
0.557078,Null,,Al,0.118721,3.6763,Co-precipitation,400.0,4.0,190.0,40,3.0,10.0774,43.2605,,,,10.1006/jcat.2002.3676,,2002
0.557078,Null,,Al,0.118721,3.6763,Co-precipitation,400.0,4.0,200.0,40,3.0,10.0774,43.2605,,,,10.1006/jcat.2002.3676,,2002
0.552133,Pd,0.0876777,Al,0.113744,3.45947,Co-precipitation,400.0,4.0,160.0,40,3.0,10.0774,42.2847,,,,10.1006/jcat.2002.3676,,2002
0.552133,Pd,0.0876777,Al,0.113744,3.45947,Co-precipitation,400.0,4.0,170.0,40,3.0,10.0774,42.2847,,,,10.1006/jcat.2002.3676,,2002
0.552133,Pd,0.0876777,Al,0.113744,3.45947,Co-precipitation,400.0,4.0,180.0,40,3.0,10.0774,42.2847,,,,10.1006/jcat.2002.3676,,2002
0.552133,Pd,0.0876777,Al,0.113744,3.45947,Co-precipitation,400.0,4.0,190.0,40,3.0,10.0774,42.2847,,,,10.1006/jcat.2002.3676,,2002
0.552133,Pd,0.0876777,Al,0.113744,3.45947,Co-precipitation,400.0,4.0,200.0,40,3.0,10.0774,42.2847,,,,10.1006/jcat.2002.3676,,2002
0.54,Pd,0.23,Al,0.1,3.40453,Co-precipitation,400.0,4.0,160.0,40,3.0,10.0774,40.4457,,,,10.1006/jcat.2002.3676,,2002
0.54,Pd,0.23,Al,0.1,3.40453,Co-precipitation,400.0,4.0,170.0,40,3.0,10.0774,40.4457,,,,10.1006/jcat.2002.3676,,2002
0.54,Pd,0.23,Al,0.1,3.40453,Co-precipitation,400.0,4.0,180.0,40,3.0,10.0774,40.4457,,,,10.1006/jcat.2002.3676,,2002
0.54,Pd,0.23,Al,0.1,3.40453,Co-precipitation,400.0,4.0,190.0,40,3.0,10.0774,40.4457,,,,10.1006/jcat.2002.3676,,2002
0.54,Pd,0.23,Al,0.1,3.40453,Co-precipitation,400.0,4.0,200.0,40,3.0,10.0774,40.4457,,,,10.1006/jcat.2002.3676,,2002
2.28086,Null,,Null,,,Co-precipitation,,,180.0,60,3.0,9.60238,40.5119,,,,10.1023/A:1015316610657,Effect of Pd on Cu-Zn catalysts for the hydrogenation of CO<sub>2</sub> to methanol:: stabilization of Cu metal against CO<sub>2</sub> oxidation,2002
2.28086,Null,,Null,,,Co-precipitation,,,200.0,60,3.0,9.60238,40.5119,,,,10.1023/A:1015316610657,,2002
2.28086,Null,,Null,,,Co-precipitation,,,220.0,60,3.0,9.60238,40.5119,,,,10.1023/A:1015316610657,,2002
2.28086,Null,,Null,,,Co-precipitation,,,240.0,60,3.0,9.60238,40.5119,,,,10.1023/A:1015316610657,,2002
2.44378,Pd,0.0254576,Null,,, Sequential-precipitation,350.0,,180.0,60,3.0,9.60238,42.1868,,,,10.1023/A:1015316610657,,2002
2.44378,Pd,0.0254576,Null,,, Sequential-precipitation,350.0,,200.0,60,3.0,9.60238,42.1868,,,,10.1023/A:1015316610657,,2002
2.44378,Pd,0.0254576,Null,,, Sequential-precipitation,350.0,,220.0,60,3.0,9.60238,42.1868,,,,10.1023/A:1015316610657,,2002
2.44378,Pd,0.0254576,Null,,, Sequential-precipitation,350.0,,240.0,60,3.0,9.60238,42.1868,,,,10.1023/A:1015316610657,,2002
2.28044,Null,,Null,,2.99773,Co-precipitation,350.0,,180.0,60,3.0,9.60238,40.052,,,,10.1006/jcat.2002.3677,Pd-modified Cu-Zn catalysts for methanol synthesis from CO<sub>2</sub>/H<sub>2</sub> mixtures:: Catalytic structures and performance,2002
2.28044,Null,,Null,,2.99773,Co-precipitation,350.0,,200.0,60,3.0,9.60238,40.052,,,,10.1006/jcat.2002.3677,,2002
2.28044,Null,,Null,,2.99773,Co-precipitation,350.0,,220.0,60,3.0,9.60238,40.052,,,,10.1006/jcat.2002.3677,,2002
2.28044,Null,,Null,,2.99773,Co-precipitation,350.0,,240.0,60,3.0,9.60238,40.052,,,,10.1006/jcat.2002.3677,,2002
2.44333,Pd,0.0464126,Null,,3.20275,Sequential-precipitation,350.0,,180.0,60,3.0,9.60238,41.2821,,,,10.1006/jcat.2002.3677,,2002
2.44333,Pd,0.0464126,Null,,3.20275,Sequential-precipitation,350.0,,200.0,60,3.0,9.60238,41.2821,,,,10.1006/jcat.2002.3677,,2002
2.44333,Pd,0.0464126,Null,,3.20275,Sequential-precipitation,350.0,,220.0,60,3.0,9.60238,41.2821,,,,10.1006/jcat.2002.3677,,2002
2.44333,Pd,0.0464126,Null,,3.20275,Sequential-precipitation,350.0,,240.0,60,3.0,9.60238,41.2821,,,,10.1006/jcat.2002.3677,,2002
23.456,Null,,Null,,3.4012,Co-precipitation,350.0,4.0,160.0,7,9.0,7.78322,34.4974,,,,10.1016/j.cattod.2012.07.029,,2012
23.456,Null,,Null,,3.4012,Co-precipitation,350.0,4.0,180.0,7,9.0,7.78322,34.4974,,,,10.1016/j.cattod.2012.07.029,,2012
23.456,Null,,Null,,3.4012,Co-precipitation,350.0,4.0,200.0,7,9.0,7.78322,34.4974,,,,10.1016/j.cattod.2012.07.029,,2012
23.456,Null,,Null,,3.4012,Co-precipitation,350.0,4.0,225.0,7,9.0,7.78322,34.4974,,,,10.1016/j.cattod.2012.07.029,,2012
11.2393,Null,,Null,,3.3673,Co-precipitation,350.0,4.0,160.0,7,9.0,7.78322,35.0599,,,,10.1016/j.cattod.2012.07.029,,2012
11.2393,Null,,Null,,3.3673,Co-precipitation,350.0,4.0,180.0,7,9.0,7.78322,35.0599,,,,10.1016/j.cattod.2012.07.029,,2012
11.2393,Null,,Null,,3.3673,Co-precipitation,350.0,4.0,200.0,7,9.0,7.78322,35.0599,,,,10.1016/j.cattod.2012.07.029,,2012
11.2393,Null,,Null,,3.3673,Co-precipitation,350.0,4.0,225.0,7,9.0,7.78322,35.0599,,,,10.1016/j.cattod.2012.07.029,,2012
2.93199,Null,,Null,,3.3322,Co-precipitation,350.0,4.0,140.0,7,9.0,7.78322,31.5287,,,,10.1016/j.cattod.2012.07.029,,2012
2.93199,Null,,Null,,3.3322,Co-precipitation,350.0,4.0,160.0,7,9.0,7.78322,31.5287,,,,10.1016/j.cattod.2012.07.029,,2012
2.93199,Null,,Null,,3.3322,Co-precipitation,350.0,4.0,180.0,7,9.0,7.78322,31.5287,,,,10.1016/j.cattod.2012.07.029,,2012
2.93199,Null,,Null,,3.3322,Co-precipitation,350.0,4.0,200.0,7,9.0,7.78322,31.5287,,,,10.1016/j.cattod.2012.07.029,,2012
2.93199,Null,,Null,,2.89037,Co-precipitation,400.0,4.0,140.0,7,9.0,7.78322,40.3952,,,,10.1016/j.cattod.2012.07.029,,2012
2.93199,Null,,Null,,2.89037,Co-precipitation,400.0,4.0,160.0,7,9.0,7.78322,40.3952,,,,10.1016/j.cattod.2012.07.029,,2012
2.93199,Null,,Null,,2.89037,Co-precipitation,400.0,4.0,180.0,7,9.0,7.78322,40.3952,,,,10.1016/j.cattod.2012.07.029,,2012
2.93199,Null,,Null,,2.89037,Co-precipitation,400.0,4.0,200.0,7,9.0,7.78322,40.3952,,,,10.1016/j.cattod.2012.07.029,,2012
2.93199,Null,,Null,,2.63906,Co-precipitation,450.0,4.0,140.0,7,9.0,7.78322,43.8031,,,,10.1016/j.cattod.2012.07.029,,2012
2.93199,Null,,Null,,2.63906,Co-precipitation,450.0,4.0,160.0,7,9.0,7.78322,43.8031,,,,10.1016/j.cattod.2012.07.029,,2012
2.93199,Null,,Null,,2.63906,Co-precipitation,450.0,4.0,180.0,7,9.0,7.78322,43.8031,,,,10.1016/j.cattod.2012.07.029,,2012
2.93199,Null,,Null,,2.63906,Co-precipitation,450.0,4.0,200.0,7,9.0,7.78322,43.8031,,,,10.1016/j.cattod.2012.07.029,,2012
2.93199,Null,,Null,,2.63906,Co-precipitation,450.0,4.0,225.0,7,9.0,7.78322,43.8031,,,,10.1016/j.cattod.2012.07.029,,2012
2.93199,Null,,Null,,2.30259,Co-precipitation,500.0,4.0,140.0,7,9.0,7.78322,38.3331,,,,10.1016/j.cattod.2012.07.029,,2012
2.93199,Null,,Null,,2.30259,Co-precipitation,500.0,4.0,160.0,7,9.0,7.78322,38.3331,,,,10.1016/j.cattod.2012.07.029,,2012
2.93199,Null,,Null,,2.30259,Co-precipitation,500.0,4.0,180.0,7,9.0,7.78322,38.3331,,,,10.1016/j.cattod.2012.07.029,,2012
2.93199,Null,,Null,,2.30259,Co-precipitation,500.0,4.0,200.0,7,9.0,7.78322,38.3331,,,,10.1016/j.cattod.2012.07.029,,2012
2.93199,Null,,Null,,2.30259,Co-precipitation,500.0,4.0,225.0,7,9.0,7.78322,38.3331,,,,10.1016/j.cattod.2012.07.029,,2012