File: data/data_modification_for_Ea/Test_Ea_0611_version_1_conflict_rows.csv
Molar ratio (Zn:Cu),Promoter 1,Promoter 1 ratio (Promoter 1:Cu),Promoter 2,Promoter 2 ratio (Promoter 2:Cu),Catalyst surface area (m2/g) (LN scale),Type of sysnthesis procedure,Calcination temperature (°C),Calcination time (h),Temperature (°C),Pressure (bar),H2/CO2 ratio (-),GHSV (mL/g.h) (LN scale),Methanol based Ea (kJ/mol),Unnamed: 14,Unnamed: 15,Unnamed: 16,DOI,Name,Year
0.4589,Al,1.0712,Zr,0.09168,4.78749,Co-precipitation,400.0,2.0,200.0,30,3.0,8.69951,15.3953,,,,10.1007/s40242-016-6130-6,,2016
0.4589,Al,1.0712,Zr,0.09168,4.78749,Co-precipitation,400.0,2.0,220.0,30,3.0,8.69951,15.3953,,,,10.1007/s40242-016-6130-6,,2016
0.4589,Al,1.0712,Zr,0.09168,4.78749,Co-precipitation,400.0,2.0,240.0,30,3.0,8.69951,15.3953,,,,10.1007/s40242-016-6130-6,,2016
0.4918,Al,0.7656,Zr,0.189,4.82028,Co-precipitation,400.0,2.0,200.0,30,3.0,8.69951,8.48208,,,,10.1007/s40242-016-6130-6,,2016
0.4918,Al,0.7656,Zr,0.189,4.82028,Co-precipitation,400.0,2.0,220.0,30,3.0,8.69951,8.48208,,,,10.1007/s40242-016-6130-6,,2016
0.4918,Al,0.7656,Zr,0.189,4.82028,Co-precipitation,400.0,2.0,240.0,30,3.0,8.69951,8.48208,,,,10.1007/s40242-016-6130-6,,2016
0.5,Al,0.345,Zr,0.15,4.47927,Co-precipitation,500.0,4.0,250.0,30,3.0,8.29405,86.2,,,,10.1016/j.jcou.2022.102240,CO2 hydrogenation to methanol with an innovative Cu/Zn/Al/Zr catalyst: Experimental tests and process modeling,2022
0.958092,Ce,6.34,K,0.11186,4.69135,Co-precipitation,400.0,4.0,200.0,20,3.0,8.38936,25.2222,,,,10.1016/j.cattod.2020.04.052,,2021
0.958092,Ce,6.34,K,0.11186,4.69135,Co-precipitation,400.0,4.0,250.0,20,3.0,8.38936,25.2222,,,,10.1016/j.cattod.2020.04.052,,2021
0.958092,Ce,5.64,K,0.11186,4.69135,Co-precipitation,400.0,4.0,300.0,20,3.0,8.38936,25.2222,,,,10.1016/j.cattod.2020.04.052,,2021
0.48382,Ce,5.64,K,0.05118,4.69135,Co-precipitation,400.0,4.0,200.0,20,3.0,8.38936,16.4085,,,,10.1016/j.cattod.2020.04.052,,2021
0.48382,Ce,4.94,K,0.05118,4.69135,Co-precipitation,400.0,4.0,250.0,20,3.0,8.38936,16.4085,,,,10.1016/j.cattod.2020.04.052,,2021
0.48382,Ce,4.94,K,0.05118,4.69135,Co-precipitation,400.0,4.0,300.0,20,3.0,8.38936,16.4085,,,,10.1016/j.cattod.2020.04.052,,2021
0.5,Al,0.6,Zr,0.05,4.26268,Co-precipitation,500.0,5.0,170.0,50,3.0,8.29405,43.1873,,,,10.1016/j.jcou.2014.12.008,Cu/Zn/Al/Zr catalysts via phase-pure hydrotalcite-like compounds for methanol synthesis from carbon dioxide,2015
0.5,Al,0.6,Zr,0.05,4.26268,Co-precipitation,500.0,5.0,190.0,50,3.0,8.29405,43.1873,,,,10.1016/j.jcou.2014.12.008,,2015
0.5,Al,0.6,Zr,0.05,4.26268,Co-precipitation,500.0,5.0,210.0,50,3.0,8.29405,43.1873,,,,10.1016/j.jcou.2014.12.008,,2015
0.5,Al,0.6,Zr,0.05,4.26268,Co-precipitation,500.0,5.0,230.0,50,3.0,8.29405,43.1873,,,,10.1016/j.jcou.2014.12.008,,2015
0.5,Al,0.6,Zr,0.05,4.26268,Co-precipitation,500.0,5.0,250.0,50,3.0,8.29405,43.1873,,,,10.1016/j.jcou.2014.12.008,,2015
0.484,Al,0.429,Zr,0.0451,4.26268,Co-precipitation,500.0,4.0,230.0,50,3.0,9.39266,17.192,,,,10.1016/j.apcata.2013.09.026,,2013
0.484,Al,0.429,Zr,0.0451,4.26268,Co-precipitation,500.0,4.0,250.0,50,3.0,9.39266,17.192,,,,10.1016/j.apcata.2013.09.026,,2013
0.484,Al,0.429,Zr,0.0451,4.26268,Co-precipitation,500.0,4.0,270.0,50,3.0,9.39266,17.192,,,,10.1016/j.apcata.2013.09.026,,2013
0.5,Al,0.0833,Zr,0.08333,4.26127,Co-precipitation,350.0,4.0,200.0,40,3.0,9.1842,29.8446,,,,10.1007/s10562-007-9182-x,,2007
0.5,Al,0.0833,Zr,0.08333,4.26127,Co-precipitation,350.0,4.0,220.0,40,3.0,9.1842,29.8446,,,,10.1007/s10562-007-9182-x,,2007
0.5,Al,0.0833,Zr,0.08333,4.26127,Co-precipitation,350.0,4.0,240.0,40,3.0,9.1842,29.8446,,,,10.1007/s10562-007-9182-x,,2007